# 1-wavelength	2-x	3-y	4-z	5-Ex	6-Ey	7-Ez	8-Hx	9-Hy	10-Hz	
0.63	0	0	0.512	296.754	7.56675e-05	0.000377865	1.79503e-05	583.483	9.54019e-05	
0.63	0	0	0.513003	297.597	0.00017854	0.00138615	1.68552e-05	578.04	9.38288e-05	
0.63	0	0	0.514005	298.266	0.000553688	0.000320639	2.38292e-05	573.389	6.8839e-05	
0.63	0	0	0.515008	298.76	0.000551878	6.16297e-05	1.91978e-05	569.591	3.02304e-05	
0.63	0	0	0.51601	299.074	0.000714337	0.000758843	3.96243e-06	566.678	7.69073e-05	
0.63	0	0	0.517013	299.211	0.000314154	0.00041439	8.59279e-06	564.635	3.25935e-05	
0.63	0	0	0.518015	299.17	0.000252129	0.00024109	6.45481e-06	563.504	9.75512e-05	
0.63	0	0	0.519018	298.947	9.44128e-05	0.000411978	1.06134e-05	563.274	5.23526e-05	
0.63	0	0	0.52002	298.544	0.000188198	0.000456948	8.67962e-06	563.964	7.60654e-05	
0.63	0	0	0.521023	297.96	0.000427792	0.00091008	1.0297e-05	565.564	3.65886e-05	
0.63	0	0	0.522025	297.204	0.00076168	0.00114816	1.2148e-05	568.039	4.31008e-05	
0.63	0	0	0.523028	296.267	0.000189502	0.000792728	1.54873e-05	571.373	6.59227e-05	
0.63	0	0	0.52403	295.154	0.000380848	0.000290298	1.44321e-05	575.545	3.53082e-05	
0.63	0	0	0.525033	293.869	0.000349098	0.000964401	1.43215e-05	580.514	2.49033e-05	
0.63	0	0	0.526035	292.409	0.000494613	0.000250904	2.06128e-05	586.232	1.50098e-05	
0.63	0	0	0.527038	290.781	0.000130667	0.00042507	2.23794e-05	592.669	6.81309e-05	
0.63	0	0	0.52804	288.985	0.000879417	8.95421e-05	1.82732e-05	599.761	4.72454e-05	
0.63	0	0	0.529043	287.019	0.000482362	0.000754661	1.73711e-05	607.459	4.76823e-05	
0.63	0	0	0.530045	284.902	0.000601157	0.000358	1.60789e-05	615.715	4.41379e-05	
0.63	0	0	0.531048	282.626	0.000618825	0.001012	1.82926e-05	624.465	4.18408e-05	
0.63	0	0	0.53205	280.201	0.000373723	6.59421e-05	2.63154e-05	633.661	1.89341e-05	
0.63	0	0	0.533053	277.63	0.000695672	0.00065073	2.02399e-05	643.245	7.09531e-05	
0.63	0	0	0.534055	274.912	0.00105128	0.000847501	2.27691e-05	653.159	8.37548e-05	
0.63	0	0	0.535058	272.065	0.0011868	0.000932513	1.88555e-05	663.355	5.30837e-05	
0.63	0	0	0.53606	269.085	0.000602642	0.00149338	1.89831e-05	673.774	5.44841e-05	
0.63	0	0	0.537063	265.983	0.000666557	0.000165703	2.35894e-05	684.364	6.53667e-05	
0.63	0	0	0.538065	262.765	0.000534699	0.000686337	2.8241e-05	695.078	8.12967e-05	
0.63	0	0	0.539068	259.442	0.000443503	0.00115251	3.08668e-05	705.874	4.81446e-05	
0.63	0	0	0.54007	256.019	0.000562074	0.000295928	3.10191e-05	716.697	0.000119899	
0.63	0	0	0.541073	252.503	0.000148081	0.000382907	2.99724e-05	727.523	4.35638e-05	
0.63	0	0	0.542075	248.905	0.00105647	0.000584848	3.22499e-05	738.27	2.11221e-05	
0.63	0	0	0.543078	245.24	0.000406785	0.000529134	2.80016e-05	748.946	7.14864e-05	
0.63	0	0	0.54408	241.509	0.000267908	0.000345657	2.62583e-05	759.477	9.14207e-05	
0.63	0	0	0.545083	237.73	0.000469369	0.000444957	2.20095e-05	769.842	5.78184e-05	
0.63	0	0	0.546085	233.918	0.00049967	0.000344339	2.79141e-05	780.011	6.41497e-05	
0.63	0	0	0.547088	230.069	0.000577626	0.00190605	2.0996e-05	789.945	4.88387e-05	
0.63	0	0	0.54809	226.21	0.000815472	0.000220926	2.36251e-05	799.618	2.55228e-05	
0.63	0	0	0.549093	222.357	0.000723228	0.00131661	2.26389e-05	808.992	4.43356e-05	
0.63	0	0	0.550095	218.519	0.000804748	0.000611686	2.31393e-05	818.052	1.72977e-05	
0.63	0	0	0.551098	214.71	0.000541556	0.000694672	2.35963e-05	826.767	6.014e-05	
0.63	0	0	0.5521	210.945	0.000735163	0.000702044	2.73397e-05	835.12	1.67613e-05	
0.63	0	0	0.553103	207.245	0.000150303	0.0004834	3.39223e-05	843.076	6.04744e-05	
0.63	0	0	0.554105	203.624	0.000296816	0.000120063	2.62972e-05	850.611	3.96233e-05	
0.63	0	0	0.555108	200.107	0.000111066	0.000779732	2.99017e-05	857.725	4e-05	
0.63	0	0	0.55611	196.701	0.000759887	0.000399817	3.53148e-05	864.397	4.18919e-05	
0.63	0	0	0.557113	193.433	0.000633041	0.000448814	3.69698e-05	870.597	8.57365e-05	
0.63	0	0	0.558115	190.317	0.000990084	0.000681068	4.10876e-05	876.325	2.79451e-05	
0.63	0	0	0.559118	187.374	0.000536907	0.00110111	3.88764e-05	881.556	4.09471e-05	
0.63	0	0	0.56012	184.633	0.000491681	0.000867028	3.35268e-05	886.274	6.14405e-05	
0.63	0	0	0.561123	182.091	0.00120155	0.00118423	3.17093e-05	890.481	5.44606e-05	
0.63	0	0	0.562125	179.782	0.00109977	0.000857847	2.17967e-05	894.164	5.20689e-05	
0.63	0	0	0.563128	177.718	0.000638211	0.000238059	2.23365e-05	897.302	6.39639e-05	
0.63	0	0	0.56413	175.92	0.000281312	0.00105169	3.69944e-05	899.903	4.37352e-05	
0.63	0	0	0.565133	174.397	0.000721389	0.000895424	3.56941e-05	901.947	7.50103e-05	
0.63	0	0	0.566135	173.159	0.00104766	0.00113454	2.97788e-05	903.442	2.25143e-05	
0.63	0	0	0.567138	172.227	0.000885465	0.000820471	2.82893e-05	904.38	4.3281e-05	
0.63	0	0	0.56814	171.601	0.000895384	0.000481574	2.55214e-05	904.748	7.46328e-05	
0.63	0	0	0.569143	171.278	0.000319104	0.000610841	2.68853e-05	904.548	0.000143383	
0.63	0	0	0.570145	171.276	0.00128226	0.000492181	2.577e-05	903.777	6.35659e-05	
0.63	0	0	0.571148	171.586	0.000991587	0.000338569	2.38699e-05	902.443	8.2751e-05	
0.63	0	0	0.57215	172.207	0.00120699	0.000354469	2.70969e-05	900.547	0.000103688	
0.63	0	0	0.573153	173.127	0.000818104	0.00136221	2.68794e-05	898.088	3.58901e-05	
0.63	0	0	0.574155	174.341	0.000344146	0.000449629	2.97164e-05	895.057	7.84294e-05	
0.63	0	0	0.575158	175.841	0.000771798	0.000858933	2.87331e-05	891.474	7.97902e-05	
0.63	0	0	0.57616	177.608	0.000257746	0.00080186	2.40868e-05	887.35	2.01818e-05	
0.63	0	0	0.577163	179.621	0.00103413	0.00151616	3.0762e-05	882.672	9.5895e-05	
0.63	0	0	0.578165	181.878	0.000951168	0.000328604	3.11689e-05	877.449	0.000106351	
0.63	0	0	0.579168	184.354	0.000266682	0.000907029	2.77925e-05	871.706	8.37293e-05	
0.63	0	0	0.58017	187.03	0.000559742	0.000985638	3.79509e-05	865.451	4.36307e-05	
0.63	0	0	0.581173	189.886	0.000428422	0.000858511	3.09717e-05	858.686	6.57393e-05	
0.63	0	0	0.582175	192.907	0.000853835	0.000356276	2.42079e-05	851.433	0.000103317	
0.63	0	0	0.583178	196.064	5.1464e-05	0.000632643	2.35496e-05	843.702	3.20378e-05	
0.63	0	0	0.58418	199.346	0.000586721	0.000631162	3.22328e-05	835.492	2.99469e-05	
0.63	0	0	0.585183	202.733	0.00159368	0.000608941	3.23098e-05	826.849	7.58015e-05	
0.63	0	0	0.586186	206.205	0.00106792	0.000643327	2.59461e-05	817.774	0.000163995	
0.63	0	0	0.587188	209.748	0.00103275	0.000370103	1.20889e-05	808.283	9.56665e-05	
0.63	0	0	0.58819	213.34	0.00140142	0.00164642	1.40311e-05	798.406	8.43449e-05	
0.63	0	0	0.589193	216.963	2.09791e-05	0.000783279	2.03191e-05	788.157	5.66278e-05	
0.63	0	0	0.590196	220.603	0.00110939	0.00141497	2.78036e-05	777.561	3.98014e-05	
0.63	0	0	0.591198	224.252	0.00197873	0.00115854	3.51964e-05	766.648	0.000122629	
0.63	0	0	0.592201	227.888	0.00090938	0.000195571	2.61724e-05	755.442	7.36397e-05	
0.63	0	0	0.593203	231.496	0.00186186	0.000547584	1.41057e-05	743.986	8.35782e-05	
0.63	0	0	0.594206	235.068	0.000756265	0.000448247	1.31557e-05	732.284	0.000102266	
0.63	0	0	0.595208	238.592	0.00209187	0.00109943	2.63494e-05	720.388	6.96763e-05	
0.63	0	0	0.596211	242.054	0.00020596	0.00114163	1.99704e-05	708.323	4.44304e-05	
0.63	0	0	0.597213	245.445	0.00048685	0.000351415	8.08329e-06	696.121	0.000115644	
0.63	0	0	0.598216	248.752	0.0001862	0.000205496	1.24646e-05	683.843	0.000151946	
0.63	0	0	0.599218	251.964	0.00138951	0.000495458	1.92636e-05	671.514	3.36595e-05	
0.63	0	0	0.600221	255.078	0.000275428	0.000338995	1.98508e-05	659.183	8.0536e-05	
0.63	0	0	0.601223	258.079	0.000198764	0.00131178	1.64828e-05	646.887	6.4253e-05	
0.63	0	0	0.602226	260.966	0.000405432	0.000300549	1.51244e-05	634.694	5.78474e-05	
0.63	0	0	0.603228	263.723	0.000152719	0.00123061	6.75196e-06	622.635	9.84564e-05	
0.63	0	0	0.604231	266.354	0.000637918	0.000806315	2.67648e-06	610.774	1.93279e-05	
0.63	0	0	0.605233	268.843	0.000485072	0.000455611	1.24986e-05	599.166	2.068e-05	
0.63	0	0	0.606236	271.194	0.00199355	0.000468901	1.31457e-05	587.871	0.000170575	
0.63	0	0	0.607238	273.382	0.000398792	0.00189666	1.26482e-05	576.944	0.000184515	
0.63	0	0	0.608241	275.412	0.000305253	0.000612372	1.01209e-05	566.452	5.72482e-05	
0.63	0	0	0.609243	277.3	0.00133896	0.000967352	1.82741e-05	556.453	4.98023e-05	
0.63	0	0	0.610246	279.017	0.00165345	0.000661736	3.27476e-05	547.011	0.000211803	
0.63	0	0	0.611248	280.555	0.000765857	0.00117925	2.88615e-05	538.203	5.21803e-05	
0.63	0	0	0.612251	281.927	0.00145226	0.000332972	2.69177e-05	530.08	7.89174e-05	
0.63	0	0	0.613253	283.126	0.000265736	0.000843536	2.43803e-05	522.706	0.000115521	
0.63	0	0	0.614256	284.14	0.000175992	0.000922187	1.9679e-05	516.139	4.4534e-05	
0.63	0	0	0.615258	284.978	0.00161866	0.000703993	2.51815e-05	510.44	8.14193e-05	
0.63	0	0	0.616261	285.637	0.000965779	0.00160816	1.70237e-05	505.649	0.000191407	
0.63	0	0	0.617263	286.109	0.00148323	0.00116112	3.06651e-06	501.812	6.15976e-05	
0.63	0	0	0.618266	286.393	0.00129074	0.000879929	1.13593e-05	498.959	9.45087e-05	
0.63	0	0	0.619268	286.49	0.00111655	0.00112383	2.33471e-05	497.125	0.000192418	
0.63	0	0	0.620271	286.405	0.00127458	0.000578998	2.58762e-05	496.321	0.000137884	
0.63	0	0	0.621273	286.128	0.00163981	0.00190995	3.00852e-05	496.551	7.50872e-05	
0.63	0	0	0.622276	285.668	0.000904491	0.00121641	2.77372e-05	497.798	0.000109177	
0.63	0	0	0.623278	285.02	0.00183857	0.000125435	2.90615e-05	500.07	5.02715e-05	
0.63	0	0	0.624281	284.185	0.000757786	0.00058856	2.91692e-05	503.337	0.00020526	
0.63	0	0	0.625283	283.164	0.00019983	0.00128022	1.66978e-05	507.557	9.78145e-05	
0.63	0	0	0.626286	281.955	0.00142371	0.000696514	1.95955e-05	512.69	4.33394e-05	
0.63	0	0	0.627288	280.57	0.000865784	0.00101811	2.96577e-05	518.688	0.000156166	
0.63	0	0	0.628291	278.997	0.000611956	0.00148453	2.23083e-05	525.505	0.000109242	
0.63	0	0	0.629293	277.254	0.00190955	0.000414897	2.35509e-05	533.066	0.000138872	
0.63	0	0	0.630296	275.336	0.00200934	0.00134832	3.06173e-05	541.314	0.000212878	
0.63	0	0	0.631298	273.252	0.00149278	0.000704102	1.5124e-05	550.195	0.000302241	
0.63	0	0	0.632301	270.993	0.000230885	0.00100271	2.34971e-05	559.647	7.53783e-05	
0.63	0	0	0.633303	268.577	0.00051696	0.0010846	1.95639e-05	569.578	2.06924e-05	
0.63	0	0	0.634306	265.998	0.000745744	0.000208497	5.13099e-05	579.948	0.000145362	
0.63	0	0	0.635308	263.265	0.00180804	0.00087316	2.52077e-05	590.674	0.000180869	
0.63	0	0	0.636311	260.383	0.00106734	0.0016519	2.18309e-05	601.732	2.07594e-05	
0.63	0	0	0.637313	257.357	0.00123494	0.00130369	1.73707e-05	613.018	8.68014e-05	
0.63	0	0	0.638316	254.203	0.00121469	0.00122401	7.05753e-06	624.506	6.63143e-05	
0.63	0	0	0.639318	250.907	0.000548602	0.0013077	1.58319e-05	636.117	0.000124847	
0.63	0	0	0.640321	247.492	0.000419902	0.000303747	1.62722e-05	647.817	5.13934e-05	
0.63	0	0	0.641323	243.966	0.000303475	0.000912295	1.84955e-05	659.549	8.71933e-05	
0.63	0	0	0.642326	240.331	0.00169926	0.000348417	1.98344e-05	671.266	9.46817e-05	
0.63	0	0	0.643328	236.593	0.000445278	0.000317438	2.01879e-05	682.93	9.97632e-05	
0.63	0	0	0.644331	232.773	0.000267156	0.001608	4.28112e-05	694.495	2.50896e-05	
0.63	0	0	0.645333	228.872	0.000446491	0.000763213	4.34817e-05	705.901	0.00023899	
0.63	0	0	0.646336	224.898	0.00140431	0.000373718	2.37652e-05	717.145	0.000106283	
0.63	0	0	0.647338	220.87	0.00178244	0.00120979	1.52037e-05	728.177	9.53766e-05	
0.63	0	0	0.648341	216.798	0.00212186	0.00128177	1.5716e-05	738.959	5.41981e-06	
0.63	0	0	0.649343	212.693	0.000704862	0.000323282	3.46064e-05	749.461	9.94066e-05	
0.63	0	0	0.650346	208.568	0.000280782	0.00084715	4.84966e-05	759.644	4.77859e-05	
0.63	0	0	0.651348	204.439	0.00138161	0.001232	3.69382e-05	769.513	8.93531e-05	
0.63	0	0	0.652351	200.317	0.00077936	0.0012071	2.97421e-05	779.013	0.000138074	
0.63	0	0	0.653353	196.228	0.000699844	0.00139428	1.9427e-05	788.14	9.92925e-05	
0.63	0	0	0.654356	192.179	0.00062114	0.00175024	1.94882e-05	796.856	0.000157934	
0.63	0	0	0.655358	188.205	0.00107568	0.00219384	1.90882e-05	805.122	9.53494e-05	
0.63	0	0	0.656361	184.307	0.00020868	0.000370998	2.3238e-05	812.948	0.000140098	
0.63	0	0	0.657363	180.506	0.00115431	0.000321462	4.47576e-05	820.319	0.000116322	
0.63	0	0	0.658366	176.834	0.000930569	0.00194042	4.07781e-05	827.212	0.000151292	
0.63	0	0	0.659368	173.297	0.000534144	0.000643766	4.07923e-05	833.601	0.000112083	
0.63	0	0	0.660371	169.937	0.0012013	0.000585172	3.96749e-05	839.476	0.000185565	
0.63	0	0	0.661373	166.761	0.00050524	0.000963931	4.7422e-05	844.84	4.53001e-05	
0.63	0	0	0.662376	163.799	0.000244916	0.000638667	5.59928e-05	849.643	8.96714e-05	
0.63	0	0	0.663378	161.076	0.000725107	0.00112472	3.66088e-05	853.911	4.17574e-05	
0.63	0	0	0.664381	158.608	0.00139663	0.000736258	3.89494e-05	857.628	0.000119523	
0.63	0	0	0.665384	156.418	0.000697737	0.000624085	4.57773e-05	860.786	0.0001307	
0.63	0	0	0.666386	154.525	0.000338985	0.000287558	5.92952e-05	863.36	0.000224798	
0.63	0	0	0.667388	152.945	0.00029895	0.00129436	3.92504e-05	865.351	0.00012586	
0.63	0	0	0.668391	151.692	0.00125489	0.00053691	3.64492e-05	866.767	9.09033e-05	
0.63	0	0	0.669394	150.789	0.000771842	0.00153924	3.33512e-05	867.601	9.14684e-05	
0.63	0	0	0.670396	150.227	0.000509789	0.00167924	3.14978e-05	867.841	8.73754e-05	
0.63	0	0	0.671399	150.027	0.000618723	0.000372404	2.60094e-05	867.489	5.68063e-05	
0.63	0	0	0.672401	150.189	0.000727619	0.00280721	3.06226e-05	866.553	0.000143384	
0.63	0	0	0.673404	150.71	0.00111515	0.000680559	2.45229e-05	865.014	3.20443e-05	
0.63	0	0	0.674406	151.571	0.000580307	0.000758544	2.77516e-05	862.897	3.21502e-05	
0.63	0	0	0.675409	152.774	0.000539716	0.00056806	3.06518e-05	860.181	0.000102158	
0.63	0	0	0.676411	154.304	0.00208235	0.000692125	2.58651e-05	856.899	8.13088e-05	
0.63	0	0	0.677414	156.142	0.00112228	0.000624499	2.48912e-05	853.023	5.42417e-05	
0.63	0	0	0.678416	158.271	0.00132862	0.00279105	3.54547e-05	848.584	0.000148599	
0.63	0	0	0.679419	160.668	0.000398997	0.000326115	2.9651e-05	843.565	8.34862e-05	
0.63	0	0	0.680421	163.324	0.00041849	0.00321166	2.76852e-05	837.999	7.25194e-05	
0.63	0	0	0.681424	166.205	0.000159369	0.00116268	1.93816e-05	831.876	1.39428e-05	
0.63	0	0	0.682426	169.289	0.000636443	0.000614417	2.96467e-05	825.224	6.0649e-05	
0.63	0	0	0.683429	172.551	0.000757474	0.000988312	3.1382e-05	818.037	0.000139793	
0.63	0	0	0.684431	175.974	0.00015427	0.000753596	2.80405e-05	810.331	3.72288e-05	
0.63	0	0	0.685434	179.532	0.00086189	0.00141225	2.99036e-05	802.12	8.40931e-05	
0.63	0	0	0.686436	183.203	0.000323648	0.00015074	5.35325e-05	793.426	0.00016079	
0.63	0	0	0.687439	186.967	0.00141434	0.00116487	3.58785e-05	784.254	0.000165396	
0.63	0	0	0.688441	190.804	0.000783372	0.000624713	4.2864e-05	774.636	0.000136627	
0.63	0	0	0.689444	194.693	0.000177945	0.000935531	4.32069e-05	764.587	6.26935e-05	
0.63	0	0	0.690446	198.626	0.000372308	0.00273597	2.31264e-05	754.114	0.000124	
0.63	0	0	0.691449	202.567	0.000371214	0.00110659	2.39929e-05	743.25	5.44255e-05	
0.63	0	0	0.692451	206.516	0.000848028	0.00313566	3.82982e-05	732.016	7.42962e-05	
0.63	0	0	0.693454	210.455	0.00131413	0.0016209	3.30202e-05	720.444	6.99369e-05	
0.63	0	0	0.694456	214.363	0.000217511	0.00152981	4.68436e-05	708.553	8.12334e-05	
0.63	0	0	0.695459	218.231	0.00159167	0.00130429	3.64097e-05	696.367	6.00966e-05	
0.63	0	0	0.696461	222.042	0.000416757	0.00287983	3.17992e-05	683.924	0.000202002	
0.63	0	0	0.697464	225.788	0.000215059	0.00179974	2.65945e-05	671.258	1.85742e-05	
0.63	0	0	0.698466	229.458	0.00105005	0.00301154	3.3822e-05	658.401	7.82784e-05	
0.63	0	0	0.699469	233.047	0.00143085	0.00102808	2.56265e-05	645.401	0.000176209	
0.63	0	0	0.700471	236.527	0.00156241	0.00144823	3.48645e-05	632.28	0.00013518	
0.63	0	0	0.701474	239.906	0.000803112	0.00135829	3.20603e-05	619.094	0.000171158	
0.63	0	0	0.702476	243.175	0.00130058	0.000765042	4.14723e-05	605.884	8.30888e-05	
0.63	0	0	0.703479	246.313	0.000535333	0.0021835	2.15894e-05	592.7	5.66083e-05	
0.63	0	0	0.704481	249.321	0.00106755	0.000493607	1.80552e-05	579.596	7.83918e-05	
0.63	0	0	0.705484	252.195	0.000693293	0.00123992	1.87719e-05	566.62	0.000118305	
0.63	0	0	0.706486	254.918	0.000457279	0.000451136	2.30298e-05	553.841	0.000121664	
0.63	0	0	0.707489	257.494	0.00125211	0.00037045	2.08992e-05	541.309	9.60035e-05	
0.63	0	0	0.708491	259.916	0.000404258	0.00233513	3.74528e-05	529.099	0.000117005	
0.63	0	0	0.709494	262.175	0.000579057	0.000708652	3.49084e-05	517.279	2.75927e-05	
0.63	0	0	0.710496	264.267	7.52822e-05	0.000527224	2.39136e-05	505.919	4.72583e-05	
0.63	0	0	0.711499	266.192	0.000528486	0.00145757	2.66048e-05	495.095	1.57899e-05	
0.63	0	0	0.712501	267.938	0.000567866	0.000570099	3.10598e-05	484.881	3.37489e-05	
0.63	0	0	0.713504	269.508	0.000869029	0.00154221	1.20739e-05	475.353	7.79143e-05	
0.63	0	0	0.714506	270.892	0.000382138	0.00116687	2.09447e-05	466.59	4.20865e-05	
0.63	0	0	0.715509	272.096	0.000187327	0.00166397	2.65177e-05	458.669	4.7533e-05	
0.63	0	0	0.716511	273.111	0.000233681	0.000712949	1.64598e-05	451.66	6.7948e-05	
0.63	0	0	0.717514	273.937	0.000598314	0.000943361	1.79631e-05	445.642	1.6745e-05	
0.63	0	0	0.718516	274.575	0.000350283	0.00141954	1.16747e-05	440.666	1.99629e-05	
0.63	0	0	0.719519	275.011	0.000272223	0.00177759	1.02634e-05	436.78	2.95549e-05	
0.63	0	0	0.720521	275.264	0.00021548	0.000276911	2.55285e-06	434.039	7.09635e-05	
0.63	0	0	0.721524	275.322	0.000615012	0.000336781	2.25691e-05	432.464	6.24356e-05	
0.63	0	0	0.722526	275.181	0.00124228	0.00126352	8.33579e-06	432.075	0.00010988	
0.63	0	0	0.723529	274.849	0.00167774	0.00110286	2.29452e-05	432.874	0.00012423	
0.63	0	0	0.724531	274.319	0.00226417	0.00096915	2.78776e-05	434.848	5.85904e-05	
0.63	0	0	0.725534	273.592	0.00079819	0.000652595	3.7299e-05	437.972	4.78477e-05	
0.63	0	0	0.726536	272.682	0.000510506	0.00164046	2.9772e-05	442.209	0.000100378	
0.63	0	0	0.727539	271.571	0.000472978	0.00278407	4.21438e-05	447.501	2.33043e-05	
0.63	0	0	0.728541	270.269	0.000642575	0.00266933	1.96719e-05	453.797	6.93979e-05	
0.63	0	0	0.729544	268.777	0.00157506	0.00145718	3.15242e-05	461.034	6.9352e-05	
0.63	0	0	0.730546	267.103	0.000678	0.000629853	3.02348e-06	469.134	6.586e-05	
0.63	0	0	0.731549	265.241	0.000890282	0.000239593	2.11506e-05	478.018	0.000163978	
0.63	0	0	0.732551	263.202	0.00111527	0.00232253	1.45255e-05	487.609	7.18826e-05	
0.63	0	0	0.733554	260.983	0.000527056	0.00282401	1.76124e-05	497.837	3.61297e-05	
0.63	0	0	0.734556	258.584	0.000595351	0.00210351	3.42827e-05	508.612	0.00013636	
0.63	0	0	0.735559	256.022	0.000343736	0.000526528	2.91415e-05	519.872	0.000140549	
0.63	0	0	0.736561	253.289	0.000987656	0.00154789	3.00439e-05	531.526	1.63419e-05	
0.63	0	0	0.737564	250.397	0.000799429	0.000776484	3.56153e-05	543.511	9.9591e-05	
0.63	0	0	0.738566	247.345	0.00135047	0.00166611	1.41629e-05	555.769	0.000116045	
0.63	0	0	0.739569	244.145	0.00126462	0.00380422	2.58315e-05	568.219	0.000151952	
0.63	0	0	0.740571	240.804	0.000457762	0.00152069	3.67396e-05	580.814	6.28828e-05	
0.63	0	0	0.741574	237.318	0.00168753	0.00150374	2.18578e-05	593.493	0.000106575	
0.63	0	0	0.742576	233.703	0.00110888	0.00181675	2.88776e-05	606.2	3.67519e-05	
0.63	0	0	0.743579	229.968	0.000431759	0.00153259	2.26559e-05	618.882	8.28057e-05	
0.63	0	0	0.744581	226.116	0.000435088	0.000350839	3.16904e-05	631.487	7.68626e-05	
0.63	0	0	0.745584	222.153	0.000112869	0.00227042	2.53398e-05	643.994	3.93091e-05	
0.63	0	0	0.746587	218.092	0.000418978	0.000502616	2.53065e-05	656.34	1.89334e-05	
0.63	0	0	0.747589	213.945	0.000378918	0.00179164	4.62602e-05	668.495	8.03303e-05	
0.63	0	0	0.748592	209.721	0.00110615	0.000753114	5.21024e-05	680.422	0.0001618	
0.63	0	0	0.749594	205.429	0.00125384	0.000817941	3.62921e-05	692.086	0.000200424	
0.63	0	0	0.750597	201.088	0.000846986	0.00204553	3.44999e-05	703.447	0.00014333	
0.63	0	0	0.751599	196.706	0.000395841	0.00182418	2.48529e-05	714.495	7.93991e-05	
0.63	0	0	0.752602	192.296	0.000118644	0.00216535	3.28907e-05	725.18	9.35176e-05	
0.63	0	0	0.753604	187.875	0.000337935	0.00180552	4.06714e-05	735.491	5.86522e-05	
0.63	0	0	0.754607	183.456	0.00028907	0.00115547	3.56629e-05	745.404	9.67747e-05	
0.63	0	0	0.755609	179.062	0.00067156	0.000760452	2.63966e-05	754.888	6.4145e-05	
0.63	0	0	0.756612	174.705	0.000382205	0.000278117	4.12086e-05	763.933	6.59949e-05	
0.63	0	0	0.757614	170.408	0.000721519	0.000888023	3.84741e-05	772.506	0.000137198	
0.63	0	0	0.758617	166.191	0.000736433	0.00186351	3.45568e-05	780.577	7.78299e-05	
0.63	0	0	0.759619	162.076	0.000473666	0.00117148	4.23378e-05	788.162	4.67338e-05	
0.63	0	0	0.760622	158.091	0.000707351	0.00116264	3.35659e-05	795.237	3.63178e-05	
0.63	0	0	0.761624	154.259	0.000366095	0.00117918	3.44901e-05	801.776	6.30528e-05	
0.63	0	0	0.762627	150.606	0.000308258	0.00113753	3.48251e-05	807.781	9.73965e-05	
0.63	0	0	0.763629	147.16	0.000246097	0.00114595	3.41973e-05	813.224	0.000118049	
0.63	0	0	0.764632	143.945	0.000234454	0.00107754	3.95161e-05	818.081	6.22842e-05	
0.63	0	0	0.765634	140.988	0.000951226	0.000846151	2.34011e-05	822.391	6.496e-05	
0.63	0	0	0.766637	138.322	0.000887097	0.000935255	2.14194e-05	826.115	3.89774e-05	
0.63	0	0	0.767639	135.971	0.00056039	0.000272038	3.03575e-05	829.234	7.00819e-05	
0.63	0	0	0.768642	133.962	0.000506232	0.0015528	3.54575e-05	831.768	2.30192e-05	
0.63	0	0	0.769644	132.317	0.000798581	0.00222684	5.11942e-05	833.697	9.74831e-05	
0.63	0	0	0.770647	131.048	0.00070876	0.000751499	2.32571e-05	835.024	0.000116666	
0.63	0	0	0.771649	130.181	0.000536383	0.000946377	2.66028e-05	835.728	0.000260462	
0.63	0	0	0.772652	129.721	0.000242894	0.00205184	2.82634e-05	835.823	0.000156473	
0.63	0	0	0.773654	129.68	0.00079296	0.00512027	3.63193e-05	835.308	2.02866e-05	
0.63	0	0	0.774657	130.05	0.00106638	0.00256895	3.01171e-05	834.177	8.99872e-05	
0.63	0	0	0.775659	130.821	0.00044919	0.00239202	3.30727e-05	832.427	0.000111394	
0.63	0	0	0.776662	131.992	0.000940398	0.00119358	2.47049e-05	830.067	0.000103819	
0.63	0	0	0.777664	133.547	0.000948689	0.00060183	1.00783e-05	827.106	0.000193218	
0.63	0	0	0.778667	135.465	0.000456715	0.00191104	2.50855e-05	823.539	0.000197872	
0.63	0	0	0.779669	137.721	0.000364987	0.000936517	3.27048e-05	819.362	8.66553e-05	
0.63	0	0	0.780672	140.287	0.000561373	0.00334565	3.65642e-05	814.586	0.000102398	
0.63	0	0	0.781674	143.138	0.000489348	0.000869289	3.96094e-05	809.239	2.6308e-05	
0.63	0	0	0.782677	146.25	0.000539063	0.00141421	2.92504e-05	803.307	9.73372e-05	
0.63	0	0	0.783679	149.592	0.000621749	0.00143103	2.19766e-05	796.794	0.000180911	
0.63	0	0	0.784682	153.137	0.000455139	0.00144481	2.62169e-05	789.716	0.000121509	
0.63	0	0	0.785684	156.858	0.000382981	0.00147898	2.3936e-05	782.101	0.000137667	
0.63	0	0	0.786687	160.724	0.000566285	0.000239189	2.50954e-05	773.944	2.3985e-05	
0.63	0	0	0.787689	164.715	0.00126639	0.00120575	3.27689e-05	765.258	0.000125952	
0.63	0	0	0.788692	168.801	0.0015563	0.000332301	4.38526e-05	756.064	9.93862e-05	
0.63	0	0	0.789694	172.965	0.000228995	0.000488842	2.91618e-05	746.375	1.21828e-05	
0.63	0	0	0.790697	177.186	0.000228532	0.000971709	1.40096e-05	736.202	9.48712e-05	
0.63	0	0	0.791699	181.443	0.00052194	0.00280785	1.43567e-05	725.575	0.000160401	
0.63	0	0	0.792702	185.717	0.000293312	0.00256493	3.4715e-05	714.506	6.85397e-05	
0.63	0	0	0.793704	189.99	0.00078835	0.000458307	3.13972e-05	703.019	2.8689e-05	
0.63	0	0	0.794707	194.243	0.000255461	0.00124665	2.04084e-05	691.13	7.76526e-05	
0.63	0	0	0.795709	198.467	0.000746595	0.00135438	4.80123e-06	678.872	8.55643e-05	
0.63	0	0	0.796712	202.644	0.000338287	0.00210009	2.50746e-05	666.275	7.62851e-05	
0.63	0	0	0.797714	206.76	0.000435655	0.00170586	1.69694e-05	653.356	0.000128121	
0.63	0	0	0.798717	210.806	0.000204309	0.00122682	8.44376e-06	640.152	0.000105972	
0.63	0	0	0.799719	214.766	0.00021629	0.00127874	2.18703e-05	626.69	0.000100378	
0.63	0	0	0.800722	218.633	0.000296238	0.00122855	2.67943e-05	613.01	9.31334e-05	
0.63	0	0	0.801724	222.399	0.000783499	0.000953642	1.98613e-05	599.145	1.82966e-05	
0.63	0	0	0.802727	226.053	0.000554476	0.00104945	9.41398e-06	585.14	4.75183e-05	
0.63	0	0	0.803729	229.587	0.000533283	0.0020267	1.44113e-05	571.031	4.30321e-05	
0.63	0	0	0.804732	232.988	0.000349457	0.00236435	2.886e-05	556.88	0.000104294	
0.63	0	0	0.805734	236.25	0.00064406	0.00238975	1.85212e-05	542.724	0.000144473	
0.63	0	0	0.806737	239.368	0.000999866	0.00141186	1.06307e-05	528.624	0.000106848	
0.63	0	0	0.807739	242.337	0.000872168	0.000959869	1.97134e-05	514.637	5.7156e-05	
0.63	0	0	0.808742	245.152	0.000909834	0.00155376	1.66574e-05	500.821	3.53587e-05	
0.63	0	0	0.809744	247.805	0.000148653	0.000653861	1.44482e-05	487.252	0.000138553	
0.63	0	0	0.810747	250.291	0.000535441	0.00156621	1.27519e-05	473.997	0.000121322	
0.63	0	0	0.811749	252.6	0.000392845	0.00158871	1.59618e-05	461.136	0.000115331	
0.63	0	0	0.812752	254.736	0.000342704	0.00100483	1.74802e-05	448.758	0.000105923	
0.63	0	0	0.813754	256.687	0.000504984	0.00163161	1.18791e-05	436.948	4.76462e-05	
0.63	0	0	0.814757	258.461	0.00028694	0.00224729	2.05347e-05	425.794	9.79879e-05	
0.63	0	0	0.815759	260.048	0.000410888	0.00102016	3.19614e-05	415.389	8.39859e-05	
0.63	0	0	0.816762	261.442	0.000334948	0.0030967	2.89708e-05	405.841	9.19284e-05	
0.63	0	0	0.817764	262.634	0.000274629	0.00319223	1.49602e-05	397.238	0.000108929	
0.63	0	0	0.818767	263.639	0.000677466	0.00203175	2.36806e-05	389.676	0.000129857	
0.63	0	0	0.81977	264.446	0.000554655	0.00163847	1.47152e-05	383.245	8.32708e-05	
0.63	0	0	0.820772	265.057	0.000663187	0.00205941	9.34781e-06	378.025	7.16386e-05	
0.63	0	0	0.821774	265.463	0.00202245	0.00140651	1.25173e-05	374.088	6.81737e-05	
0.63	0	0	0.822777	265.673	0.00129219	0.00252897	1.85968e-05	371.484	0.000127821	
0.63	0	0	0.823779	265.68	0.000371003	0.00206422	2.73959e-05	370.249	0.000137022	
0.63	0	0	0.824782	265.479	8.48495e-05	0.000273293	2.96655e-05	370.404	0.000124792	
0.63	0	0	0.825785	265.08	0.000936638	0.00112365	1.31639e-05	371.934	0.000107128	
0.63	0	0	0.826787	264.483	0.000351756	0.00203688	1.36872e-05	374.826	6.15127e-05	
0.63	0	0	0.82779	263.683	0.000795027	0.00248706	4.17912e-05	379.024	3.2943e-05	
0.63	0	0	0.828792	262.68	0.000433517	0.00155352	2.59888e-05	384.48	3.06745e-05	
0.63	0	0	0.829795	261.479	0.000575002	0.00263274	1.39444e-05	391.112	5.04472e-05	
0.63	0	0	0.830797	260.079	8.82013e-05	0.00261811	1.57021e-05	398.831	5.05562e-05	
0.63	0	0	0.8318	258.486	0.000709974	0.00128957	5.09025e-05	407.549	9.65026e-05	
0.63	0	0	0.832802	256.698	0.000270037	0.00181939	8.9705e-06	417.17	6.2716e-05	
0.63	0	0	0.833805	254.719	0.000124689	0.00188171	2.37023e-05	427.591	7.45139e-05	
0.63	0	0	0.834807	252.552	0.000213484	0.00306626	1.94634e-05	438.729	9.52833e-05	
0.63	0	0	0.83581	250.2	0.000392343	0.00170083	7.98256e-06	450.468	0.000105639	
0.63	0	0	0.836812	247.664	0.00108947	0.00190912	1.43892e-05	462.73	0.000141818	
0.63	0	0	0.837815	244.953	0.000967735	0.00100172	5.84509e-06	475.423	9.8517e-05	
0.63	0	0	0.838817	242.069	6.08753e-05	0.001727	3.34521e-05	488.469	0.00011701	
0.63	0	0	0.83982	239.016	0.000372923	0.000412303	1.0074e-05	501.786	0.000111402	
0.63	0	0	0.840822	235.795	0.00131508	0.000848177	1.42038e-05	515.307	0.000108605	
0.63	0	0	0.841825	232.419	0.0013119	0.00268274	1.09757e-05	528.962	0.00011047	
0.63	0	0	0.842827	228.89	0.00130376	0.00238533	1.84724e-05	542.686	5.46833e-05	
0.63	0	0	0.84383	225.211	0.00108185	0.0010877	5.29303e-05	556.431	0.000111225	
0.63	0	0	0.844832	221.396	0.00109115	0.000194223	2.81146e-05	570.143	0.000116187	
0.63	0	0	0.845835	217.448	0.00092857	0.00262595	3.79228e-05	583.76	0.00010021	
0.63	0	0	0.846837	213.374	0.000694306	0.00128907	2.14291e-05	597.251	1.24074e-05	
0.63	0	0	0.84784	209.183	0.000487844	0.000882228	2.10894e-05	610.564	5.6767e-05	
0.63	0	0	0.848842	204.886	0.000169299	5.3024e-05	1.64062e-05	623.661	3.70607e-05	
0.63	0	0	0.849845	200.489	0.000510974	0.000920443	2.11716e-05	636.53	0.000115085	
0.63	0	0	0.850847	196.01	0.00101468	0.00159691	2.00688e-06	649.084	4.34797e-05	
0.63	0	0	0.85185	191.451	0.000786207	0.000116949	1.82664e-05	661.337	7.73725e-05	
0.63	0	0	0.852852	186.825	0.000643903	0.00204906	2.06321e-05	673.245	2.64442e-05	
0.63	0	0	0.853855	182.147	0.00102498	0.00119267	1.15914e-05	684.781	0.000142359	
0.63	0	0	0.854857	177.431	0.000833995	0.00162847	2.02094e-05	695.907	9.59919e-05	
0.63	0	0	0.85586	172.692	0.00050886	0.00188636	2.54897e-05	706.617	0.000168433	
0.63	0	0	0.856862	167.947	0.000500325	0.00186416	3.85455e-05	716.872	1.34468e-05	
0.63	0	0	0.857865	163.217	0.000664229	0.000442581	3.44894e-05	726.685	0.000154662	
0.63	0	0	0.858867	158.521	0.00108221	0.00025294	3.82508e-05	735.994	0.000174817	
0.63	0	0	0.85987	153.871	0.00038077	0.00185378	2.37055e-05	744.814	5.98328e-05	
0.63	0	0	0.860872	149.297	0.00126824	0.000592803	3.14102e-05	753.108	5.59138e-05	
0.63	0	0	0.861875	144.826	0.000639471	0.000269346	4.16213e-05	760.874	0.000100975	
0.63	0	0	0.862877	140.483	0.000157945	0.00185291	4.36208e-05	768.083	8.20635e-05	
0.63	0	0	0.86388	136.292	0.000138153	0.00190892	2.26623e-05	774.742	0.000144602	
0.63	0	0	0.864882	132.291	0.000280439	0.00112521	3.51029e-05	780.83	6.66116e-05	
0.63	0	0	0.865885	128.505	0.000276374	0.00263273	4.353e-05	786.329	2.90645e-05	
0.63	0	0	0.866887	124.975	0.000711448	0.000654366	4.75318e-05	791.225	6.41474e-05	
0.63	0	0	0.86789	121.738	0.000687619	0.00229256	3.18304e-05	795.521	6.2773e-05	
0.63	0	0	0.868892	118.825	0.000733421	0.000252653	2.08469e-05	799.214	0.000128354	
0.63	0	0	0.869895	116.272	0.000933133	0.000529571	2.37345e-05	802.278	0.000153687	
0.63	0	0	0.870897	114.113	0.000977047	0.00114671	3.93075e-05	804.736	0.000110339	
0.63	0	0	0.8719	112.378	0.000172298	0.000840532	3.36536e-05	806.566	9.90045e-05	
0.63	0	0	0.872902	111.094	0.000804532	0.000669048	4.79012e-05	807.762	8.63923e-05	
0.63	0	0	0.873905	110.281	0.000915785	0.00105384	4.74389e-05	808.331	9.80321e-05	
0.63	0	0	0.874907	109.948	0.00114946	0.00208071	4.07363e-05	808.269	1.04813e-05	
0.63	0	0	0.87591	110.106	0.000858148	0.0011866	3.64066e-05	807.573	2.25871e-05	
0.63	0	0	0.876912	110.751	0.000673724	0.00144115	3.47147e-05	806.233	7.69825e-05	
0.63	0	0	0.877915	111.869	0.000665822	0.00124794	2.24853e-05	804.268	4.51734e-05	
0.63	0	0	0.878917	113.437	0.000250118	0.0026029	2.11748e-05	801.659	0.00015607	
0.63	0	0	0.87992	115.436	0.00125891	0.0022897	4.9578e-05	798.42	0.000149267	
0.63	0	0	0.880922	117.836	0.00105036	0.000844428	3.52805e-05	794.562	3.10905e-05	
0.63	0	0	0.881925	120.6	0.000557003	0.00211328	3.47819e-05	790.078	9.03015e-05	
0.63	0	0	0.882927	123.696	7.56019e-05	0.00126362	4.39786e-05	784.985	0.000113509	
0.63	0	0	0.88393	127.09	0.000588989	0.00296367	5.71485e-05	779.282	9.09856e-05	
0.63	0	0	0.884932	130.742	0.000671286	0.000453972	4.66702e-05	772.987	9.034e-05	
0.63	0	0	0.885935	134.614	2.97368e-05	0.00114044	3.07378e-05	766.088	0.000133134	
0.63	0	0	0.886937	138.674	0.000595402	0.0026655	3.46359e-05	758.616	5.54086e-05	
0.63	0	0	0.88794	142.896	0.000256772	0.0017049	3.70265e-05	750.563	6.98157e-05	
0.63	0	0	0.888942	147.249	0.000747341	0.000904392	3.22308e-05	741.951	5.90765e-05	
0.63	0	0	0.889945	151.7	0.000768836	0.00176058	2.90544e-05	732.792	7.73329e-05	
0.63	0	0	0.890947	156.225	0.00115861	0.00178053	4.05594e-05	723.1	0.000107719	
0.63	0	0	0.89195	160.803	0.00207179	0.0021624	4.61844e-05	712.889	0.000117296	
0.63	0	0	0.892952	165.417	0.00111861	0.00314624	2.88265e-05	702.175	4.48668e-05	
0.63	0	0	0.893955	170.044	0.000913941	0.000822098	4.49363e-05	690.969	3.7063e-05	
0.63	0	0	0.894957	174.66	0.000851362	0.000596829	4.78419e-05	679.311	4.51242e-05	
0.63	0	0	0.89596	179.252	0.000573055	0.00233155	5.39835e-05	667.209	8.2579e-05	
0.63	0	0	0.896962	183.802	0.00115658	0.00150213	3.65685e-05	654.672	3.80571e-05	
0.63	0	0	0.897965	188.303	0.000837568	0.00229761	5.27468e-05	641.739	0.000132072	
0.63	0	0	0.898968	192.732	0.00128706	0.0014044	4.07724e-05	628.428	6.52535e-05	
0.63	0	0	0.89997	197.084	0.000778342	0.000404778	2.18262e-05	614.767	0.00011094	
0.63	0	0	0.900972	201.345	0.00125797	0.000959526	3.34899e-05	600.782	0.000176914	
0.63	0	0	0.901975	205.506	0.000590841	0.000315445	2.70795e-05	586.513	0.000181539	
0.63	0	0	0.902977	209.558	0.00111919	0.00105091	3.37815e-05	571.989	8.77871e-05	
0.63	0	0	0.90398	213.491	0.000594253	0.00124454	3.9625e-05	557.245	4.06315e-05	
0.63	0	0	0.904983	217.289	0.000373605	0.00232284	2.59914e-05	542.32	4.59381e-05	
0.63	0	0	0.905985	220.956	0.00148836	0.00114924	4.02157e-05	527.261	8.71112e-05	
0.63	0	0	0.906988	224.479	0.00105198	0.00103202	2.91598e-05	512.104	0.000175934	
0.63	0	0	0.90799	227.847	0.000909209	0.00144367	3.77929e-05	496.914	0.000157597	
0.63	0	0	0.908993	231.061	0.000361719	0.000864366	2.40963e-05	481.736	0.000168159	
0.63	0	0	0.909995	234.116	0.000407438	0.00195398	1.22116e-05	466.635	0.000259268	
0.63	0	0	0.910998	237.002	0.000250287	0.00107223	1.56797e-05	451.681	0.000189445	
0.63	0	0	0.912	239.713	0.000292987	0.000777632	1.39381e-05	436.939	5.34565e-05	

